File: data/XRD_raw_spectra/RuIr.csv
6,10302
6.30463,9722
6.60925,9557
6.91388,8724
7.21851,8284
7.52314,8181
7.82776,7775
8.13239,7481
8.43702,7149
8.74164,7107
9.04627,7130
9.3509,6894
9.65553,6640
9.96015,6471
10.26478,6309
10.56941,6271
10.87404,5917
11.17866,5706
11.48329,5592
11.78792,5302
12.09254,5322
12.39717,4803
12.7018,4853
13.00643,4656
13.31105,4272
13.61568,4353
13.92031,4113
14.22493,4191
14.52956,3950
14.83419,4022
15.13882,3829
15.44344,3789
15.74807,3766
16.0527,3669
16.35732,3792
16.66195,3662
16.96658,3521
17.27121,3575
17.57583,3500
17.88046,3553
18.18509,3469
18.48972,3491
18.79434,3363
19.09897,3481
19.4036,3348
19.70822,3343
20.01285,3317
20.31748,3249
20.62211,3310
20.92673,3292
21.23136,3275
21.53599,3205
21.84061,3274
22.14524,3107
22.44987,3109
22.7545,3165
23.05912,3259
23.36375,3223
23.66838,3025
23.973,3026
24.27763,3043
24.58226,3118
24.88689,2930
25.19151,2931
25.49614,2991
25.80077,3029
26.1054,2839
26.41002,2914
26.71465,2879
27.01928,2933
27.3239,2940
27.62853,2970
27.93316,2954
28.23779,3076
28.54241,2958
28.84704,2913
29.15167,2944
29.45629,2881
29.76092,2901
30.06555,2807
30.37018,2871
30.6748,2830
30.97943,2922
31.28406,2964
31.58868,3172
31.89331,2765
32.19794,2950
32.50257,2831
32.80719,2873
33.11182,2867
33.41645,2799
33.72108,2763
34.0257,2746
34.33033,2856
34.63496,2791
34.93958,2904
35.24421,2836
35.54884,2872
35.85347,2917
36.15809,3005
36.46272,2930
36.76735,3127
37.07197,3253
37.3766,3542
37.68123,4863
37.98586,12335
38.29048,18473
38.59511,5869
38.89974,3927
39.20436,3628
39.50899,3534
39.81362,3331
40.11825,3300
40.42287,3469
40.7275,3854
41.03213,4105
41.33676,5278
41.64138,12128
41.94601,22726
42.25064,9158
42.55526,6390
42.85989,6959
43.16452,9958
43.46915,26951
43.77377,83380
44.0784,30904
44.38303,9638
44.68765,6036
44.99228,4843
45.29691,4396
45.60154,3940
45.90616,3652
46.21079,3568
46.51542,3320
46.82004,3342
47.12467,3279
47.4293,3276
47.73393,3141
48.03855,3050
48.34318,3201
48.64781,3011
48.95244,3030
49.25706,2959
49.56169,3050
49.86632,3132
50.17094,2938
50.47557,2981
50.7802,2948
51.08483,2945
51.38945,2956
51.69408,2949
51.99871,2930
52.30333,2965
52.60796,2910
52.91259,2951
53.21722,2925
53.52184,2880
53.82647,2978
54.1311,2848
54.43572,2975
54.74035,3054
55.04498,2983
55.34961,3023
55.65423,3084
55.95886,3313
56.26349,3419
56.56812,3449
56.87274,3591
57.17737,3942
57.482,5067
57.78662,8915
58.09125,14031
58.39588,7785
58.70051,4667
59.00513,3917
59.30976,3573
59.61439,3514
59.91901,3487
60.22364,3389
60.52827,3477
60.8329,3348
61.13752,3596
61.44215,3383
61.74678,3489
62.0514,3367
62.35603,3410
62.66066,3303
62.96529,3380
63.26991,3364
63.57454,3381
63.87917,3423
64.1838,3289
64.48842,3332
64.79305,3264
65.09768,3357
65.4023,3169
65.70693,3341
66.01156,3390
66.31619,3332
66.62081,3465
66.92544,3399
67.23007,3422
67.53469,3429
67.83932,3597
68.14395,3841
68.44858,4571
68.7532,7217
69.05783,17769
69.36246,15797
69.66708,6323
69.97171,4238
70.27634,3583
70.58097,3465
70.88559,3459
71.19022,3227
71.49485,3223
71.79948,3248
72.1041,3222
72.40873,3261
72.71336,3331
73.01798,3261
73.32261,3186
73.62724,3144
73.93187,3170
74.23649,3267
74.54112,3370
74.84575,3302
75.15037,3407
75.455,3439
75.75963,3501
76.06426,3594
76.36888,3596
76.67351,3849
76.97814,4197
77.28276,5294
77.58739,8599
77.89202,17123
78.19665,16395
78.50127,8178
78.8059,4892
79.11053,4240
79.41516,3847
79.71978,3679
80.02441,3617
80.32904,3629
80.63366,3525
80.93829,3692
81.24292,3912
81.54755,4198
81.85217,5909
82.1568,5870
82.46143,4404
82.76605,4277
83.07068,4253
83.37531,4623
83.67994,6073
83.98456,10730
84.28919,22091
84.59382,18430
84.89844,9458
85.20307,8628
85.5077,15604
85.81233,15820
86.11695,8649
86.42158,5175
86.72621,4052
87.03084,3723
87.33546,3637
87.64009,3516
87.94472,3359
88.24934,3287
88.55397,3400
88.8586,3171
89.16323,3272
89.46785,3185
89.77248,3216
89.96287,3295