File: data/XRD_raw_spectra/RuPt 80-20.csv
6,3624
6.30468,3508
6.60935,3582
6.91403,3080
7.2187,2947
7.52338,2795
7.82806,2849
8.13273,2626
8.43741,2554
8.74208,2446
9.04676,2410
9.35144,2387
9.65611,2328
9.96079,2189
10.26546,2067
10.57014,2005
10.87482,2046
11.17949,1968
11.48417,1884
11.78884,1780
12.09352,1796
12.3982,1704
12.70287,1621
13.00755,1484
13.31222,1566
13.6169,1474
13.92158,1419
14.22625,1293
14.53093,1362
14.8356,1350
15.14028,1372
15.44496,1339
15.74963,1309
16.05431,1334
16.35898,1368
16.66366,1330
16.96834,1301
17.27301,1200
17.57769,1289
17.88236,1249
18.18704,1185
18.49172,1174
18.79639,1254
19.10107,1223
19.40574,1117
19.71042,1187
20.0151,1155
20.31977,1172
20.62445,1148
20.92912,1213
21.2338,1122
21.53848,1133
21.84315,1189
22.14783,1115
22.4525,1174
22.75718,1168
23.06186,1115
23.36653,1155
23.67121,1132
23.97588,1094
24.28056,1129
24.58524,1057
24.88991,1130
25.19459,1090
25.49926,1060
25.80394,1132
26.10862,1023
26.41329,1030
26.71797,1070
27.02264,1143
27.32732,1079
27.632,1106
27.93667,1098
28.24135,1130
28.54602,1125
28.8507,1121
29.15538,1238
29.46005,1057
29.76473,1127
30.0694,1102
30.37408,1081
30.67876,1133
30.98343,1096
31.28811,1133
31.59278,1080
31.89746,1136
32.20214,1145
32.50681,1061
32.81149,1152
33.11616,1189
33.42084,1194
33.72552,1151
34.03019,1273
34.33487,1210
34.63954,1256
34.94422,1268
35.2489,1339
35.55357,1192
35.85825,1373
36.16292,1336
36.4676,1373
36.77228,1471
37.07695,1643
37.38163,1876
37.6863,2297
37.99098,2699
38.29566,2917
38.60033,2599
38.90501,2599
39.20968,2438
39.51436,2617
39.81904,2798
40.12371,3099
40.42839,3310
40.73306,3731
41.03774,4250
41.34242,4686
41.64709,4750
41.95177,4329
42.25644,4186
42.56112,4209
42.8658,4690
43.17047,5200
43.47515,6051
43.77982,6309
44.0845,5181
44.38918,4234
44.69385,3392
44.99853,2934
45.3032,2586
45.60788,2521
45.91256,2331
46.21723,2096
46.52191,2124
46.82658,2055
47.13126,1832
47.43594,1781
47.74061,1688
48.04529,1625
48.34996,1617
48.65464,1462
48.95932,1493
49.26399,1437
49.56867,1450
49.87334,1409
50.17802,1241
50.4827,1270
50.78737,1299
51.09205,1322
51.39672,1352
51.7014,1306
52.00608,1245
52.31075,1209
52.61543,1333
52.9201,1239
53.22478,1240
53.52946,1242
53.83413,1270
54.13881,1239
54.44348,1345
54.74816,1279
55.05284,1296
55.35751,1324
55.66219,1304
55.96686,1422
56.27154,1448
56.57622,1530
56.88089,1547
57.18557,1638
57.49024,1632
57.79492,1662
58.0996,1645
58.40427,1636
58.70895,1514
59.01362,1496
59.3183,1482
59.62298,1416
59.92765,1418
60.23233,1473
60.537,1425
60.84168,1365
61.14636,1404
61.45103,1450
61.75571,1383
62.06038,1443
62.36506,1380
62.66974,1398
62.97441,1394
63.27909,1416
63.58376,1399
63.88844,1438
64.19312,1439
64.49779,1412
64.80247,1410
65.10714,1369
65.41182,1368
65.7165,1443
66.02117,1437
66.32585,1522
66.63052,1562
66.9352,1612
67.23988,1651
67.54455,1735
67.84923,1903
68.1539,2117
68.45858,2479
68.76326,2956
69.06793,3127
69.37261,2933
69.67728,2350
69.98196,2031
70.28664,1935
70.59131,1742
70.89599,1648
71.20066,1700
71.50534,1569
71.81002,1525
72.11469,1525
72.41937,1525
72.72404,1495
73.02872,1607
73.3334,1520
73.63807,1446
73.94275,1532
74.24742,1531
74.5521,1541
74.85678,1528
75.16145,1592
75.46613,1651
75.7708,1683
76.07548,1783
76.38016,1805
76.68483,1869
76.98951,1897
77.29418,2090
77.59886,2151
77.90354,2178
78.20821,2058
78.51289,1918
78.81756,1825
79.12224,1767
79.42692,1829
79.73159,1738
80.03627,1784
80.34094,1790
80.64562,1879
80.9503,1979
81.25497,2045
81.55965,2159
81.86432,2254
82.169,2397
82.47368,2398
82.77835,2643
83.08303,2809
83.3877,3116
83.69238,3533
83.99706,3830
84.30173,3623
84.60641,3367
84.91108,3148
85.21576,3020
85.52044,2838
85.82511,2684
86.12979,2372
86.43446,2158
86.73914,2011
87.04382,1886
87.34849,1760
87.65317,1779
87.95784,1673
88.26252,1663
88.5672,1634
88.87187,1591
89.17655,1539
89.48122,1531
89.7859,1657
89.97632,1632