File: data/XRD_raw_spectra/RuPtPdIr 15-09-22.csv
6,7987,0.420435
6.304676,7567,0.398326
6.609352,7526,0.396168
6.914028,6767,0.356214
7.218704,6490,0.341633
7.52338,6112,0.321735
7.828056,5900,0.310575
8.132732,5631,0.296415
8.437408,5511,0.290098
8.742084,5336,0.280886
9.04676,5123,0.269674
9.351436,5019,0.2642
9.656112,4922,0.259094
9.960788,4771,0.251145
10.2655,4569,0.240512
10.57014,4457,0.234616
10.8748,4316,0.227194
11.1795,4222,0.222246
11.4842,3949,0.207875
11.7888,3868,0.203611
12.09352,3753,0.197558
12.3982,3596,0.189293
12.7029,3385,0.178186
13.0075,3328,0.175186
13.3122,3142,0.165395
13.6169,2998,0.157814
13.9216,2914,0.153393
14.2263,2970,0.15634
14.5309,2912,0.153287
14.8356,2870,0.151076
15.14028,2767,0.145655
15.445,2924,0.153919
15.7496,2836,0.149287
16.0543,2812,0.148023
16.359,2864,0.150761
16.66366,2776,0.146128
16.9683,2754,0.14497
17.273,2719,0.143128
17.5777,2687,0.141443
17.8824,2695,0.141865
18.18704,2786,0.146655
18.4917,2706,0.142444
18.7964,2722,0.143286
19.1011,2693,0.141759
19.4057,2650,0.139496
19.71042,2630,0.138443
20.0151,2595,0.136601
20.3198,2604,0.137074
20.6244,2602,0.136969
20.9291,2461,0.129547
21.2338,2561,0.134811
21.5385,2593,0.136495
21.8432,2529,0.133126
22.1478,2577,0.135653
22.4525,2431,0.127968
22.75718,2551,0.134284
23.0619,2449,0.128915
23.3665,2355,0.123967
23.6712,2429,0.127862
23.9759,2477,0.130389
24.28056,2431,0.127968
24.5852,2502,0.131705
24.8899,2422,0.127494
25.1946,2517,0.132495
25.4993,2391,0.125862
25.80394,2392,0.125915
26.1086,2442,0.128547
26.4133,2449,0.128915
26.718,2462,0.129599
27.0226,2508,0.132021
27.32732,2471,0.130073
27.632,2464,0.129705
27.9367,2467,0.129863
28.2413,2512,0.132231
28.546,2412,0.126967
28.8507,2495,0.131337
29.1554,2625,0.13818
29.4601,2448,0.128862
29.7647,2466,0.12981
30.0694,2497,0.131442
30.37408,2521,0.132705
30.6788,2425,0.127652
30.9834,2465,0.129757
31.2881,2559,0.134705
31.5928,2502,0.131705
31.89746,2458,0.129389
32.2021,2532,0.133284
32.5068,2592,0.136443
32.8115,2629,0.13839
33.1162,2622,0.138022
33.42084,2631,0.138496
33.7255,2692,0.141707
34.0302,2670,0.140549
34.3349,2733,0.143865
34.6395,2696,0.141917
34.94422,2843,0.149655
35.2489,2872,0.151182
35.5536,2911,0.153235
35.8582,3069,0.161552
36.1629,3248,0.170974
36.4676,3310,0.174238
36.7723,3588,0.188872
37.077,3789,0.199453
37.3816,4213,0.221772
37.6863,4916,0.258778
37.99098,5503,0.289677
38.2957,6368,0.335211
38.6003,7060,0.371638
38.905,8181,0.430647
39.2097,9592,0.504922
39.51436,12051,0.634363
39.819,16400,0.863294
40.1237,18995,0.999895
40.4284,17820,0.938043
40.7331,16664,0.877191
41.03774,15148,0.797389
41.3424,13676,0.719903
41.6471,11766,0.619361
41.9518,10682,0.562299
42.2564,9394,0.494499
42.56112,8842,0.465442
42.8658,8710,0.458493
43.1705,8520,0.448492
43.4751,8639,0.454756
43.7798,8457,0.445176
44.0845,7978,0.419961
44.3892,7431,0.391167
44.6939,7391,0.389061
44.9985,7322,0.385429
45.3032,7544,0.397115
45.60788,7759,0.408433
45.9126,8267,0.435174
46.2172,9184,0.483445
46.5219,10268,0.540506
46.8266,9713,0.511291
47.13126,8403,0.442333
47.4359,7599,0.400011
47.7406,6594,0.347107
48.0453,5945,0.312944
48.35,5328,0.280465
48.65464,4815,0.253461
48.9593,4470,0.2353
49.264,4152,0.218561
49.5687,3900,0.205296
49.8733,3735,0.19661
50.17802,3605,0.189767
50.4827,3372,0.177502
50.7874,3415,0.179765
51.092,3162,0.166447
51.3967,3156,0.166131
51.7014,3116,0.164026
52.0061,2969,0.156288
52.3108,3062,0.161183
52.6154,2874,0.151287
52.9201,2978,0.156762
53.22478,2907,0.153024
53.5295,2825,0.148708
53.8341,2952,0.155393
54.1388,2899,0.152603
54.4435,2862,0.150655
54.74816,2857,0.150392
55.0528,2888,0.152024
55.3575,2759,0.145233
55.6622,2911,0.153235
55.9669,2985,0.15713
56.27154,2957,0.155656
56.5762,3014,0.158657
56.8809,3025,0.159236
57.1856,2982,0.156972
57.4902,2970,0.15634
57.79492,2928,0.15413
58.0996,2993,0.157551
58.4043,2927,0.154077
58.7089,3022,0.159078
59.0136,3014,0.158657
59.3183,3055,0.160815
59.623,2955,0.155551
59.9277,2942,0.154867
60.2323,2992,0.157499
60.537,2920,0.153708
60.84168,3010,0.158446
61.1464,2908,0.153077
61.451,3061,0.161131
61.7557,3014,0.158657
62.0604,2988,0.157288
62.36506,3059,0.161025
62.6697,3038,0.15992
62.9744,3115,0.163973
63.2791,3091,0.16271
63.5838,3049,0.160499
63.88844,3126,0.164552
64.1931,3151,0.165868
64.4978,3326,0.17508
64.8025,3256,0.171395
65.1071,3361,0.176923
65.41182,3521,0.185345
65.7165,3606,0.189819
66.0212,3918,0.206243
66.3258,4113,0.216508
66.6305,4365,0.229773
66.9352,4820,0.253724
67.2399,5274,0.277623
67.5446,6473,0.340738
67.8492,7452,0.392272
68.1539,8324,0.438174
68.45858,8794,0.462915
68.7633,8481,0.446439
69.0679,8295,0.436648
69.3726,7466,0.393009
69.6773,6690,0.352161
69.98196,6112,0.321735
70.2866,5625,0.296099
70.5913,5123,0.269674
70.896,4677,0.246197
71.2007,4547,0.239354
71.50534,4201,0.22114
71.81,3909,0.205769
72.1147,3863,0.203348
72.4194,3696,0.194557
72.724,3716,0.19561
73.02872,3755,0.197663
73.3334,3549,0.186819
73.6381,3493,0.183871
73.9427,3504,0.18445
74.2474,3548,0.186766
74.5521,3579,0.188398
74.8568,3567,0.187766
75.1615,3452,0.181713
75.4661,3548,0.186766
75.7708,3647,0.191978
76.07548,3613,0.190188
76.3802,3631,0.191135
76.6848,3669,0.193136
76.9895,3717,0.195662
77.2942,3823,0.201242
77.59886,3929,0.206822
77.9035,3862,0.203295
78.2082,4033,0.212297
78.5129,3987,0.209875
78.8176,4023,0.21177
79.12224,4099,0.215771
79.4269,4206,0.221403
79.7316,4382,0.230668
80.0363,4676,0.246144
80.3409,5045,0.265568
80.64562,5346,0.281413
80.9503,6069,0.319471
81.255,6662,0.350687
81.5596,7964,0.419224
81.8643,8978,0.472601
82.169,9893,0.520766
82.4737,9981,0.525399
82.7784,10280,0.541138
83.083,10015,0.527189
83.3877,9999,0.526346
83.69238,9380,0.493762
83.9971,8913,0.469179
84.3017,8420,0.443228
84.6064,7730,0.406906
84.9111,7195,0.378744
85.21576,6855,0.360846
85.5204,6602,0.347529
85.8251,6342,0.333842
86.1298,6195,0.326104
86.4345,6188,0.325736
86.73914,5978,0.314681
87.0438,5826,0.30668
87.3485,5731,0.301679
87.6532,5483,0.288625
87.9578,5160,0.271622
88.26252,4853,0.255461
88.5672,4655,0.245039
88.8719,4460,0.234774
89.1765,4104,0.216034
89.4812,4043,0.212823
89.7859,3904,0.205506
89.9763,3760,0.197926