File: data/XRD_raw_spectra/XRD_Ru.xy
'Id: "" Comment: "" Operator: "Bruker Service" Anode: "Cu" Scantype: "Coupled TwoTheta/Theta" TimePerStep: "28.8"
5 3.54167
5.2525 2.98611
5.505 3.15972
5.7575 2.08333
6.01 2.01389
6.2625 2.22222
6.515 1.5625
6.7675 2.01389
7.02 1.59722
7.2725 1.49306
7.525 1.28472
7.7775 1.18056
8.03 1.14583
8.2825 1.31944
8.535 1.11111
8.7875 1.49306
9.04 1.59722
9.2925 1.04167
9.545 1.14583
9.7975 1.18056
10.05 1.18056
10.3025 1.04167
10.555 0.729167
10.8075 1.00694
11.06 1.35417
11.3125 1.5625
11.565 0.9375
11.8175 1.18056
12.07 1.25
12.3225 1.14583
12.575 1.42361
12.8275 0.972222
13.08 1.21528
13.3325 0.972222
13.585 1.18056
13.8375 0.694444
14.09 1.49306
14.3425 0.902778
14.595 1.21528
14.8475 1.00694
15.1 1.42361
15.3525 0.972222
15.605 1.21528
15.8575 1.31944
16.11 1.18056
16.3625 1.11111
16.615 1.04167
16.8675 1.21528
17.12 1.45833
17.3725 1.18056
17.625 1.42361
17.8775 1.21528
18.13 2.04861
18.3825 1.73611
18.635 2.01389
18.8875 1.25
19.14 1.45833
19.3925 1.45833
19.645 1.25
19.8975 1.18056
20.15 1.28472
20.4025 1.31944
20.655 1.25
20.9075 1.45833
21.16 1.42361
21.4125 1.5625
21.665 2.04861
21.9175 0.9375
22.17 1.63194
22.4225 1.94444
22.675 1.5625
22.9275 1.63194
23.18 1.80556
23.4325 1.42361
23.685 1.63194
23.9375 1.38889
24.19 1.11111
24.4425 1.73611
24.695 1.49306
24.9475 1.70139
25.2 1.45833
25.4525 1.42361
25.705 1.5625
25.9575 1.70139
26.21 1.90972
26.4625 1.66667
26.715 1.77083
26.9675 1.73611
27.22 1.73611
27.4725 1.80556
27.725 1.875
27.9775 1.73611
28.23 1.84028
28.4825 1.45833
28.735 2.08333
28.9875 1.94444
29.24 2.04861
29.4925 2.04861
29.745 1.875
29.9975 2.22222
30.25 1.73611
30.5025 1.80556
30.755 1.45833
31.0075 1.45833
31.26 2.11806
31.5125 1.80556
31.765 2.11806
32.0175 1.77083
32.27 2.29167
32.5225 2.22222
32.775 2.15278
33.0275 2.63889
33.28 2.88194
33.5325 2.77778
33.785 2.43056
34.0375 3.29861
34.29 1.80556
34.5425 2.60417
34.795 2.63889
35.0475 2.15278
35.3 3.15972
35.5525 3.22917
35.805 3.47222
36.0575 3.125
36.31 2.91667
36.5625 4.13194
36.815 4.34028
37.0675 5.90278
37.32 6.77083
37.5725 7.53472
37.825 9.89583
38.0775 11.8056
38.33 14.4097
38.5825 13.3333
38.835 11.9792
39.0875 8.33333
39.34 7.70833
39.5925 8.19444
39.845 7.36111
40.0975 8.75
40.35 6.77083
40.6025 8.81944
40.855 9.09722
41.1075 10.3819
41.36 12.6042
41.6125 15.5556
41.865 16.8403
42.1175 19.375
42.37 22.3958
42.6225 19.5139
42.875 24.7222
43.1275 26.2153
43.38 31.5625
43.6325 35.9375
43.885 42.8819
44.1375 41.3194
44.39 31.2847
44.6425 24.4792
44.895 18.3681
45.1475 14.2014
45.4 11.0069
45.6525 8.81944
45.905 7.95139
46.1575 5.17361
46.41 5.625
46.6625 4.0625
46.915 4.51389
47.1675 3.88889
47.42 4.09722
47.6725 3.57639
47.925 3.15972
48.1775 3.125
48.43 3.78472
48.6825 3.40278
48.935 2.53472
49.1875 3.125
49.44 2.8125
49.6925 2.84722
49.945 2.63889
50.1975 3.26389
50.45 2.60417
50.7025 2.95139
50.955 3.47222
51.2075 2.63889
51.46 2.36111
51.7125 1.80556
51.965 3.02083
52.2175 2.70833
52.47 2.60417
52.7225 2.63889
52.975 2.77778
53.2275 2.63889
53.48 2.70833
53.7325 2.84722
53.985 2.95139
54.2375 2.98611
54.49 3.33333
54.7425 3.54167
54.995 3.02083
55.2475 3.50694
55.5 3.68056
55.7525 3.61111
56.005 3.26389
56.2575 4.34028
56.51 4.375
56.7625 4.30556
57.015 4.79167
57.2675 5.13889
57.52 5.76389
57.7725 5.83333
58.025 6.35417
58.2775 6.90972
58.53 6.25
58.7825 6.45833
59.035 5.45139
59.2875 5.34722
59.54 4.75694
59.7925 5.65972
60.045 4.72222
60.2975 4.34028
60.55 5.20833
60.8025 4.79167
61.055 4.47917
61.3075 4.61806
61.56 4.34028
61.8125 4.6875
62.065 4.58333
62.3175 4.65278
62.57 4.40972
62.8225 4.47917
63.075 4.58333
63.3275 4.61806
63.58 4.27083
63.8325 4.09722
64.085 4.0625
64.3375 3.99306
64.59 4.47917
64.8425 4.16667
65.095 4.16667
65.3475 3.22917
65.6 3.99306
65.8525 4.27083
66.105 3.81944
66.3575 3.78472
66.61 4.86111
66.8625 4.20139
67.115 4.44444
67.3675 3.71528
67.62 5.10417
67.8725 5.52083
68.125 5.45139
68.3775 7.15278
68.63 6.77083
68.8825 8.75
69.135 8.57639
69.3875 9.6875
69.64 9.30556
69.8925 8.64583
70.145 6.84028
70.3975 6.28472
70.65 5.03472
70.9025 5
71.155 5.03472
71.4075 4.61806
71.66 3.85417
71.9125 4.23611
72.165 3.26389
72.4175 3.61111
72.67 3.61111
72.9225 3.61111
73.175 3.61111
73.4275 3.92361
73.68 3.50694
73.9325 3.75
74.185 3.85417
74.4375 3.57639
74.69 3.85417
74.9425 3.75
75.195 3.95833
75.4475 4.40972
75.7 5.17361
75.9525 4.34028
76.205 5
76.4575 5.45139
76.7099 5.59028
76.9624 5.69444
77.2149 7.22222
77.4674 7.11806
77.7199 7.36111
77.9724 7.56944
78.2249 9.02778
78.4774 9.65278
78.7299 8.125
78.9824 6.97917
79.2349 6.35417
79.4874 6.90972
79.7399 6.94444
79.9924 6.42361
80.0073 5.9375