File: data/XRD_raw_spectra/XRD_Ru-Pd.csv
6,3497
6.30468,3483
6.60935,3392
6.91403,3068
7.2187,2885
7.52338,2744
7.82806,2627
8.13273,2633
8.43741,2559
8.74208,2385
9.04676,2347
9.35144,2356
9.65611,2242
9.96079,2143
10.26546,2228
10.57014,2037
10.87482,1956
11.17949,1962
11.48417,1812
11.78884,1760
12.09352,1720
12.3982,1647
12.70287,1629
13.00755,1557
13.31222,1468
13.6169,1382
13.92158,1350
14.22625,1358
14.53093,1366
14.8356,1395
15.14028,1273
15.44496,1354
15.74963,1330
16.05431,1273
16.35898,1356
16.66366,1281
16.96834,1342
17.27301,1371
17.57769,1299
17.88236,1195
18.18704,1237
18.49172,1271
18.79639,1220
19.10107,1214
19.40574,1164
19.71042,1235
20.0151,1196
20.31977,1198
20.62445,1201
20.92912,1121
21.2338,1179
21.53848,1133
21.84315,1136
22.14783,1153
22.4525,1103
22.75718,1143
23.06186,1086
23.36653,1045
23.67121,1028
23.97588,1079
24.28056,1049
24.58524,1121
24.88991,1125
25.19459,1124
25.49926,1016
25.80394,1052
26.10862,984
26.41329,1034
26.71797,972
27.02264,1036
27.32732,993
27.632,1033
27.93667,1040
28.24135,1059
28.54602,1012
28.8507,1085
29.15538,1180
29.46005,1042
29.76473,1024
30.0694,1022
30.37408,1054
30.67876,1070
30.98343,1060
31.28811,1034
31.59278,1065
31.89746,1113
32.20214,1009
32.50681,1038
32.81149,1043
33.11616,1060
33.42084,1080
33.72552,975
34.03019,1097
34.33487,1115
34.63954,1121
34.94422,1148
35.2489,1100
35.55357,1160
35.85825,1187
36.16292,1231
36.4676,1259
36.77228,1353
37.07695,1518
37.38163,1838
37.6863,2644
37.99098,4241
38.29566,4070
38.60033,2785
38.90501,2117
39.20968,1964
39.51436,1873
39.81904,1829
40.12371,1935
40.42839,2109
40.73306,2476
41.03774,3089
41.34242,4062
41.64709,4561
41.95177,4430
42.25644,3778
42.56112,3804
42.8658,5068
43.17047,7848
43.47515,12175
43.77982,13246
44.0845,8599
44.38918,5100
44.69385,3370
44.99853,2423
45.3032,2013
45.60788,1807
45.91256,1658
46.21723,1572
46.52191,1494
46.82658,1459
47.13126,1346
47.43594,1305
47.74061,1256
48.04529,1214
48.34996,1235
48.65464,1184
48.95932,1201
49.26399,1103
49.56867,1197
49.87334,1190
50.17802,1139
50.4827,1098
50.78737,1124
51.09205,1072
51.39672,1187
51.7014,1100
52.00608,1045
52.31075,1127
52.61543,1129
52.9201,1097
53.22478,1102
53.52946,1087
53.83413,1082
54.13881,1123
54.44348,1147
54.74816,1140
55.05284,1080
55.35751,1214
55.66219,1215
55.96686,1301
56.27154,1301
56.57622,1559
56.88089,1644
57.18557,1903
57.49024,2236
57.79492,2448
58.0996,2444
58.40427,2071
58.70895,1775
59.01362,1577
59.3183,1501
59.62298,1449
59.92765,1368
60.23233,1350
60.537,1337
60.84168,1283
61.14636,1279
61.45103,1248
61.75571,1310
62.06038,1286
62.36506,1228
62.66974,1256
62.97441,1213
63.27909,1286
63.58376,1246
63.88844,1239
64.19312,1258
64.49779,1273
64.80247,1225
65.10714,1306
65.41182,1264
65.7165,1299
66.02117,1254
66.32585,1303
66.63052,1261
66.9352,1376
67.23988,1434
67.54455,1377
67.84923,1632
68.1539,1788
68.45858,2282
68.76326,3084
69.06793,3766
69.37261,3328
69.67728,2413
69.98196,1798
70.28664,1569
70.59131,1388
70.89599,1323
71.20066,1284
71.50534,1334
71.81002,1264
72.11469,1292
72.41937,1212
72.72404,1273
73.02872,1207
73.3334,1198
73.63807,1341
73.94275,1289
74.24742,1215
74.5521,1333
74.85678,1306
75.16145,1391
75.46613,1345
75.7708,1389
76.07548,1537
76.38016,1693
76.68483,1856
76.98951,2212
77.29418,2565
77.59886,2942
77.90354,2972
78.20821,2722
78.51289,2227
78.81756,1942
79.12224,1766
79.42692,1587
79.73159,1543
80.03627,1481
80.34094,1443
80.64562,1501
80.9503,1564
81.25497,1685
81.55965,1796
81.86432,1887
82.169,1907
82.47368,1870
82.77835,2039
83.08303,2142
83.3877,2586
83.69238,3347
83.99706,3945
84.30173,4022
84.60641,3718
84.91108,3571
85.21576,3535
85.52044,3597
85.82511,3224
86.12979,2490
86.43446,2095
86.73914,1665
87.04382,1577
87.34849,1451
87.65317,1350
87.95784,1292
88.26252,1295
88.5672,1285
88.87187,1294
89.17655,1126
89.48122,1209
89.7859,1241
89.97632,1258