File: data/XRD_raw_spectra/XRD_Ru-Pt-Pd-Ir-Rh.xy
'Id: "" Comment: "" Operator: "Lab Manager" Anode: "Cu" Scantype: "Coupled TwoTheta/Theta" TimePerStep: "28.8"
5 3.64583
5.25275 3.61111
5.50549 3.4375
5.75824 2.67361
6.01099 3.19444
6.26373 2.29167
6.51648 2.1875
6.76923 2.1875
7.02198 2.01389
7.27472 1.80556
7.52747 2.08333
7.78022 2.1875
8.03296 2.39583
8.28571 1.84028
8.53846 2.43056
8.7912 1.90972
9.04395 2.36111
9.2967 3.02083
9.54944 2.32639
9.80219 2.22222
10.0549 2.5
10.3077 1.97917
10.5604 2.25694
10.8132 2.67361
11.0659 2.60417
11.3187 2.5
11.5714 2.77778
11.8242 2.22222
12.0769 2.46528
12.3297 2.53472
12.5824 2.74306
12.8352 2.95139
13.0879 2.77778
13.3406 2.5
13.5934 1.875
13.8461 2.46528
14.0989 3.125
14.3516 3.61111
14.6044 3.125
14.8571 2.5
15.1099 2.91667
15.3626 3.85417
15.6154 3.85417
15.8681 3.78472
16.1209 3.92361
16.3736 4.20139
16.6264 4.375
16.8791 4.47917
17.1319 4.375
17.3846 4.27083
17.6373 4.65278
17.8901 4.0625
18.1428 4.61806
18.3956 5.79861
18.6483 5.625
18.9011 5.86806
19.1538 6.00694
19.4066 5.83333
19.6593 5.52083
19.9121 6.42361
20.1648 6.07639
20.4176 6.94444
20.6703 6.66667
20.9231 6.31944
21.1758 7.88194
21.4285 6.21528
21.6813 7.1875
21.934 6.84028
22.1868 6.42361
22.4395 6.35417
22.6923 6.94444
22.945 6.84028
23.1978 5.86806
23.4505 5.27778
23.7033 5.72917
23.956 5.45139
24.2088 5.41667
24.4615 5.76389
24.7143 6.14583
24.967 4.82639
25.2198 4.89583
25.4725 5.59028
25.7252 4.96528
25.978 4.79167
26.2307 5
26.4835 4.58333
26.7362 4.72222
26.989 4.23611
27.2417 4.27083
27.4945 4.61806
27.7472 3.85417
28 4.13194
28.2527 3.4375
28.5055 3.95833
28.7582 4.09722
29.011 3.29861
29.2637 3.64583
29.5165 2.8125
29.7692 3.22917
30.0219 3.92361
30.2747 4.0625
30.5274 3.61111
30.7802 4.20139
31.0329 3.64583
31.2857 3.61111
31.5384 3.81944
31.7912 3.36806
32.0439 3.125
32.2967 3.33333
32.5494 3.50694
32.8022 2.77778
33.0549 3.33333
33.3077 2.95139
33.5604 3.99306
33.8131 2.8125
34.0659 3.05556
34.3186 4.20139
34.5714 4.34028
34.8241 3.71528
35.0769 3.47222
35.3296 4.27083
35.5824 3.33333
35.8351 3.78472
36.0879 3.40278
36.3406 4.51389
36.5934 4.47917
36.8461 3.81944
37.0989 3.99306
37.3516 3.99306
37.6044 3.85417
37.8571 4.40972
38.1098 4.16667
38.3626 5.72917
38.6153 6.28472
38.8681 7.39583
39.1208 7.70833
39.3736 10.0347
39.6263 12.8125
39.8791 14.4444
40.1318 15
40.3846 18.8542
40.6373 17.0139
40.8901 14.9653
41.1428 14.8264
41.3956 11.5625
41.6483 9.86111
41.9011 8.64583
42.1538 7.5
42.4065 5.625
42.6593 4.58333
42.912 4.82639
43.1648 4.61806
43.4175 3.64583
43.6703 4.16667
43.923 3.78472
44.1758 3.88889
44.4285 3.36806
44.6813 3.05556
44.934 4.09722
45.1868 3.95833
45.4395 4.58333
45.6923 4.82639
45.945 5.03472
46.1977 5.48611
46.4505 6.38889
46.7032 6.94444
46.956 7.70833
47.2087 7.67361
47.4615 6.49306
47.7142 6.875
47.967 5.41667
48.2197 4.13194
48.4725 3.4375
48.7252 4.30556
48.978 3.125
49.2307 2.63889
49.4835 2.63889
49.7362 2.70833
49.989 1.77083
50.2417 1.94444
50.4944 2.01389
50.7472 2.53472
50.9999 1.45833
51.2527 1.66667
51.5054 1.70139
51.7582 2.22222
52.0109 1.80556
52.2637 1.21528
52.5164 1.52778
52.7692 1.97917
53.0219 1.63194
53.2747 1.90972
53.5274 2.01389
53.7802 1.80556
54.0329 1.90972
54.2856 1.73611
54.5384 2.15278
54.7911 2.01389
55.0439 2.08333
55.2966 1.77083
55.5494 1.14583
55.8021 1.80556
56.0549 1.66667
56.3076 1.35417
56.5604 1.875
56.8131 1.21528
57.0659 2.60417
57.3186 1.63194
57.5714 1.45833
57.8241 1.21528
58.0769 1.84028
58.3296 1.63194
58.5823 2.04861
58.8351 1.875
59.0878 1.42361
59.3406 1.52778
59.5933 2.15278
59.8461 1.59722
60.0988 1.73611
60.3516 1.875
60.6043 1.90972
60.8571 2.08333
61.1098 1.63194
61.3626 1.59722
61.6153 1.49306
61.8681 2.11806
62.1208 2.11806
62.3736 1.66667
62.6263 1.97917
62.879 2.15278
63.1318 2.22222
63.3845 2.1875
63.6373 2.67361
63.89 1.97917
64.1428 2.08333
64.3955 2.04861
64.6483 2.04861
64.901 2.04861
65.1538 1.59722
65.4065 2.04861
65.6593 2.11806
65.912 2.08333
66.1648 2.04861
66.4175 2.25694
66.6702 1.97917
66.923 2.53472
67.1757 2.91667
67.4285 2.60417
67.6812 2.53472
67.934 2.95139
68.1867 3.05556
68.4395 3.75
68.6922 3.47222
68.945 3.71528
69.1977 3.92361
69.4505 2.98611
69.7032 2.8125
69.956 2.95139
70.2087 2.56944
70.4615 2.15278
70.7142 2.1875
70.9669 2.22222
71.2197 1.875
71.4724 1.73611
71.7252 1.66667
71.9779 1.49306
72.2307 1.63194
72.4834 1.14583
72.7362 1.21528
72.9889 1.31944
73.2417 1.49306
73.4944 1.52778
73.7472 1.59722
73.9999 1.38889
74.2527 1.25
74.5054 1.28472
74.7582 1.52778
75.0109 1.45833
75.2636 1.35417
75.5164 1.11111
75.7691 1.31944
76.0219 1.5625
76.2746 1.04167
76.5274 1.70139
76.7801 1.14583
77.0329 1.07639
77.2856 1.63194
77.5384 1.31944
77.7911 1.38889
78.0439 1.21528
78.2966 1.42361
78.5494 1.21528
78.8021 1.70139
79.0548 1.52778
79.3076 1.18056
79.5603 1.45833
79.8131 1.07639
80.0064 1.63194