File: data/XRD_raw_spectra/XRD_Ru-Rh.csv
10,6511
10.2836,6422
10.5673,6137
10.8509,6020
11.1345,5860
11.4181,5918
11.7018,5659
11.9854,5645
12.269,5354
12.5526,5171
12.8363,5025
13.1199,4824
13.4035,4650
13.6871,4529
13.9708,4151
14.2544,4206
14.538,3940
14.8216,3940
15.1053,3855
15.3889,3863
15.6725,3857
15.9562,3877
16.2398,3846
16.5234,3769
16.807,3689
17.09066,3639
17.3743,3585
17.6579,3480
17.9415,3497
18.2252,3632
18.5088,3423
18.7924,3554
19.076,3521
19.3597,3393
19.6433,3299
19.9269,3437
20.2106,3413
20.4942,3293
20.7778,3177
21.0614,3246
21.3451,3187
21.6287,3178
21.9123,3118
22.1959,3036
22.4796,3012
22.7632,3048
23.0468,2992
23.3304,2980
23.6141,3017
23.8977,2886
24.18132,2798
24.4649,2817
24.7486,2897
25.0322,2816
25.3158,2837
25.5995,2793
25.8831,2837
26.1667,2731
26.4503,2785
26.734,2658
27.0176,2695
27.3012,2760
27.5848,2716
27.8685,2638
28.1521,2756
28.4357,2673
28.7193,2681
29.003,2679
29.2866,2672
29.5702,2630
29.8538,2613
30.1375,2708
30.4211,2567
30.7047,2607
30.9884,2550
31.27198,2580
31.5556,2590
31.8392,2554
32.1229,2481
32.4065,2521
32.6901,2517
32.9737,2446
33.2574,2494
33.541,2477
33.8246,2438
34.1082,2435
34.3919,2590
34.6755,2424
34.9591,2427
35.2427,2461
35.5264,2463
35.81,2569
36.0936,2436
36.3773,2559
36.6609,2478
36.9445,2612
37.2281,2667
37.5118,2971
37.7954,3849
38.079,8743
38.36264,13871
38.6463,5183
38.9299,3269
39.2135,2976
39.4971,2853
39.7808,2757
40.0644,2808
40.348,2715
40.6317,2847
40.9153,3011
41.1989,3337
41.4825,4310
41.7662,9831
42.0498,15015
42.3334,6731
42.617,4662
42.9007,4747
43.1843,6100
43.4679,12639
43.7515,42340
44.0352,43290
44.3188,12150
44.6024,5739
44.886,4147
45.1697,3484
45.4533,3201
45.7369,3016
46.0206,2872
46.3042,2773
46.5878,2789
46.8714,2743
47.1551,2621
47.4387,2583
47.7223,2609
48.0059,2454
48.2896,2487
48.5732,2604
48.8568,2553
49.1404,2494
49.4241,2399
49.7077,2435
49.9913,2526
50.2749,2511
50.5586,2419
50.8422,2469
51.1258,2458
51.4095,2393
51.6931,2405
51.9767,2375
52.2603,2527
52.54396,2402
52.8276,2483
53.1112,2491
53.3948,2438
53.6785,2494
53.9621,2603
54.2457,2366
54.5293,2456
54.813,2537
55.0966,2543
55.3802,2499
55.6639,2586
55.9475,2729
56.2311,2738
56.5147,2822
56.7984,2916
57.082,3104
57.3656,3429
57.6492,4164
57.9329,7003
58.2165,9908
58.5001,6150
58.7837,3862
59.0674,3287
59.351,3087
59.63462,2915
59.9182,2947
60.2019,2910
60.4855,3020
60.7691,2986
61.0528,2936
61.3364,2938
61.62,2947
61.9036,2987
62.1873,3056
62.4709,3068
62.7545,2953
63.0381,3002
63.3218,2976
63.6054,2982
63.889,2941
64.1726,2995
64.4563,2885
64.7399,2917
65.0235,2861
65.3071,2975
65.5908,2821
65.8744,2871
66.158,2890
66.4417,2950
66.72528,2830
67.0089,2849
67.2925,2867
67.5762,2905
67.8598,3010
68.1434,3133
68.427,3471
68.7107,4149
68.9943,6823
69.2779,13449
69.5615,9865
69.8452,4908
70.1288,3444
70.4124,3147
70.696,2998
70.9797,2912
71.2633,2821
71.5469,2901
71.8306,2933
72.1142,2802
72.3978,2790
72.6814,2815
72.9651,2838
73.2487,2857
73.5323,2965
73.81594,2842
74.0996,2798
74.3832,2783
74.6668,2889
74.9504,3051
75.2341,2927
75.5177,3018
75.8013,3022
76.085,3073
76.3686,3049
76.6522,3069
76.9358,3309
77.2195,3661
77.5031,4319
77.7867,7112
78.0703,12412
78.354,11578
78.6376,6321
78.9212,4247
79.2048,3496
79.4885,3402
79.7721,3226
80.0557,3208
80.3393,3217
80.623,3303
80.9066,3131
81.1902,3260
81.4739,3307
81.7575,3592
82.0411,4772
82.3247,4688
82.6084,3598
82.892,3534
83.1756,3550
83.4592,3489
83.7429,4149
84.0265,5740
84.3101,11141
84.5937,15584
84.8774,10499
85.161,6166
85.4446,6660
85.7282,11422
86.0119,11224
86.2955,6661
86.5791,4214
86.8628,3611
87.1464,3243
87.43,3245
87.7136,3119
87.99726,3020
88.2809,2988
88.5645,2958
88.8481,2956
89.1318,2861
89.4154,2887
89.699,2873
89.9826,2873
90.0181,2865