File: data/XRD_raw_spectra/XRD_Ru-Pt-Pd.csv
10,6604
10.2836,6408
10.5673,6675
10.8509,6298
11.1345,6324
11.4181,5798
11.7018,5994
11.9854,5670
12.269,5564
12.5526,5310
12.8363,5131
13.1199,4871
13.4035,4901
13.6871,4611
13.9708,4321
14.2544,4284
14.538,4208
14.8216,4166
15.1053,4040
15.3889,4088
15.6725,4088
15.9562,3845
16.2398,3899
16.5234,3876
16.807,3874
17.09066,3824
17.3743,3786
17.6579,3754
17.9415,3702
18.2252,3662
18.5088,3621
18.7924,3653
19.076,3548
19.3597,3540
19.6433,3447
19.9269,3542
20.2106,3500
20.4942,3475
20.7778,3361
21.0614,3423
21.3451,3213
21.6287,3442
21.9123,3326
22.1959,3337
22.4796,3171
22.7632,3246
23.0468,3228
23.3304,3128
23.6141,3140
23.8977,3036
24.18132,3096
24.4649,3092
24.7486,3125
25.0322,3141
25.3158,3062
25.5995,3040
25.8831,2963
26.1667,3067
26.4503,2898
26.734,2964
27.0176,3095
27.3012,3003
27.5848,2981
27.8685,2931
28.1521,3036
28.4357,2962
28.7193,3037
29.003,2971
29.2866,2946
29.5702,2914
29.8538,2940
30.1375,3031
30.4211,2938
30.7047,3050
30.9884,2800
31.27198,2863
31.5556,2940
31.8392,3098
32.1229,2900
32.4065,3070
32.6901,3078
32.9737,2938
33.2574,3147
33.541,3178
33.8246,3067
34.1082,3143
34.3919,3149
34.6755,3250
34.9591,3298
35.2427,3299
35.5264,3482
35.81,3483
36.0936,3566
36.3773,3685
36.6609,3916
36.9445,4289
37.2281,4678
37.5118,5838
37.7954,7414
38.079,9181
38.36264,9315
38.6463,8758
38.9299,8469
39.2135,8924
39.4971,10824
39.7808,14845
40.0644,18419
40.348,16446
40.6317,13933
40.9153,13735
41.1989,14132
41.4825,14389
41.7662,13490
42.0498,12171
42.3334,11548
42.617,12166
42.9007,13695
43.1843,16531
43.4679,19220
43.7515,19579
44.0352,16599
44.3188,12943
44.6024,10742
44.886,9140
45.1697,8267
45.4533,7667
45.7369,7885
46.0206,8167
46.3042,9122
46.5878,9695
46.8714,8509
47.1551,6764
47.4387,5763
47.7223,5213
48.0059,4833
48.2896,4318
48.5732,4112
48.8568,3998
49.1404,3812
49.4241,3628
49.7077,3531
49.9913,3380
50.2749,3302
50.5586,3259
50.8422,3239
51.1258,3297
51.4095,3251
51.6931,2982
51.9767,3035
52.2603,3132
52.54396,3009
52.8276,3039
53.1112,2942
53.3948,2992
53.6785,3009
53.9621,3085
54.2457,2975
54.5293,3070
54.813,3107
55.0966,3170
55.3802,3045
55.6639,3155
55.9475,3379
56.2311,3379
56.5147,3561
56.7984,3765
57.082,3959
57.3656,4144
57.6492,4280
57.9329,4295
58.2165,4234
58.5001,4091
58.7837,3878
59.0674,3566
59.351,3493
59.63462,3437
59.9182,3484
60.2019,3363
60.4855,3364
60.7691,3217
61.0528,3201
61.3364,3374
61.62,3337
61.9036,3214
62.1873,3399
62.4709,3229
62.7545,3356
63.0381,3371
63.3218,3236
63.6054,3312
63.889,3380
64.1726,3231
64.4563,3341
64.7399,3493
65.0235,3295
65.3071,3449
65.5908,3514
65.8744,3639
66.158,3712
66.4417,3968
66.72528,4264
67.0089,4488
67.2925,5042
67.5762,6186
67.8598,7294
68.1434,8557
68.427,8977
68.7107,9115
68.9943,9324
69.2779,8462
69.5615,7132
69.8452,5923
70.1288,5296
70.4124,4713
70.696,4309
70.9797,3956
71.2633,3926
71.5469,3763
71.8306,3711
72.1142,3761
72.3978,3677
72.6814,3517
72.9651,3533
73.2487,3483
73.5323,3527
73.81594,3494
74.0996,3734
74.3832,3656
74.6668,3856
74.9504,3913
75.2341,3882
75.5177,3907
75.8013,4177
76.085,4384
76.3686,4626
76.6522,4892
76.9358,5202
77.2195,5296
77.5031,5471
77.7867,5504
78.0703,5404
78.354,5130
78.6376,4809
78.9212,4602
79.2048,4584
79.4885,4575
79.7721,4530
80.0557,4531
80.3393,4842
80.623,5022
80.9066,5466
81.1902,6125
81.4739,7033
81.7575,8174
82.0411,9141
82.3247,9362
82.6084,8688
82.892,8642
83.1756,8765
83.4592,9254
83.7429,9971
84.0265,9998
84.3101,9625
84.5937,8782
84.8774,8431
85.161,8163
85.4446,7708
85.7282,7162
86.0119,6750
86.2955,6324
86.5791,6104
86.8628,5713
87.1464,5033
87.43,4562
87.7136,4268
87.99726,4204
88.2809,3998
88.5645,3811
88.8481,3737
89.1318,3643
89.4154,3592
89.699,3682
89.9826,3737
90.0181,3612